Wavelength	Counts
339.8119	-68.64352
340.198	-68.64352
340.5842	-68.64352
340.9702	-118.96504
341.3563	-87.36781
341.7423	-72.73946
342.1283	-87.95294
342.5142	-101.99616
342.9001	-75.08
343.2859	-80.93134
343.6717	-24.75848
344.0575	-55.77058
344.4432	-33.53549
344.8289	-45.23817
345.2145	18.54143
345.6001	9.76442
345.9856	48.38326
346.3711	50.13866
346.7566	60.08594
347.142	96.36424
347.5274	111.57773
347.9128	110.40746
348.2981	132.05741
348.6833	137.32362
349.0685	174.18706
349.4537	193.49648
349.8389	194.66674
350.224	174.77219
350.609	238.55179
350.994	216.3167
351.379	248.49907
351.7639	230.35991
352.1488	254.3504
352.5336	277.17063
352.9185	269.56389
353.3032	251.42473
353.6879	295.89491
354.0726	288.87331
354.4572	255.52067
354.8418	277.17063
355.2264	257.86121
355.6109	250.25447
355.9954	292.96924
356.3798	278.3409
356.7642	291.79898
357.1485	273.65982
357.5328	255.52067
357.9171	268.39362
358.3013	290.62871
358.6855	297.06518
359.0696	265.46795
359.4537	278.92603
359.8378	262.54228
360.2218	266.05308
360.6058	263.12741
360.9897	280.0963
361.3736	277.17063
361.7574	248.49907
362.1412	223.92344
362.525	247.91393
362.9087	268.97875
363.2924	256.69094
363.676	289.45844
364.0596	243.23286
364.4432	309.93813
364.8267	281.26657
365.2102	256.69094
365.5936	285.94764
365.977	262.54228
366.3603	262.54228
366.7436	257.27607
367.1269	267.80848
367.5101	242.06259
367.8933	198.17755
368.2764	232.70045
368.6595	234.45585
369.0426	285.94764
369.4256	240.89232
369.8085	266.05308
370.1915	244.40313
370.5743	255.52067
370.9572	263.71255
371.34	250.8396
371.7227	272.48956
372.1055	238.55179
372.4881	253.76527
372.8708	277.75576
373.2534	231.53018
373.6359	260.78688
374.0184	253.76527
374.4009	203.44375
374.7833	224.50857
375.1657	250.25447
375.548	274.24496
375.9303	243.23286
376.3126	287.70304
376.6948	248.49907
377.0769	258.44634
377.4591	263.12741
377.8412	270.73415
378.2232	199.93295
378.6052	242.64773
378.9872	234.45585
379.3691	260.78688
379.751	254.93554
380.1328	263.12741
380.5146	252.00987
380.8963	282.43683
381.278	254.93554
381.6597	230.94505
382.0413	257.27607
382.4229	249.0842
382.8044	266.63822
383.1859	278.3409
383.5674	274.24496
383.9488	293.55438
384.3302	233.87072
384.7115	244.40313
385.0928	233.87072
385.474	245.5734
385.8552	251.42473
386.2364	277.17063
386.6175	274.83009
386.9986	247.91393
387.3796	259.03148
387.7606	247.91393
388.1416	268.39362
388.5225	266.05308
388.9033	233.87072
389.2841	261.95715
389.6649	277.17063
390.0457	273.65982
390.4263	288.28817
390.807	274.83009
391.1876	268.39362
391.5682	272.48956
391.9487	253.76527
392.3292	238.55179
392.7096	285.94764
393.09	283.6071
393.4704	268.39362
393.8507	300.57598
394.231	298.23545
394.6112	263.71255
394.9914	245.5734
395.3715	274.24496
395.7516	271.31929
396.1317	273.07469
396.5117	301.16112
396.8917	280.68143
397.2716	241.47746
397.6515	260.20174
398.0313	265.46795
398.4111	276.58549
398.7909	271.90442
399.1706	297.06518
399.5503	288.28817
399.9299	285.94764
400.3095	311.1084
400.6891	297.65032
401.0686	276.58549
401.448	305.84219
401.8275	308.76786
402.2068	319.8854
402.5862	318.13
402.9655	323.39621
403.3447	279.51116
403.7239	317.54487
404.1031	281.8517
404.4822	270.14902
404.8613	315.78947
405.2403	328.66241
405.6193	304.08679
405.9983	305.84219
406.3772	312.27866
406.7561	291.79898
407.1349	331.00295
407.5137	329.24755
407.8924	357.33398
408.2711	346.21643
408.6498	352.06777
409.0284	374.30286
409.4069	377.81366
409.7855	387.17581
410.164	374.88799
410.5424	369.03665
410.9208	391.27174
411.2992	395.95282
411.6775	400.04875
412.0557	394.19741
412.434	399.46362
412.8121	412.33657
413.1903	441.59326
413.5684	457.39188
413.9464	487.81884
414.3245	520.58634
414.7024	577.34433
415.0804	551.01331
415.4582	562.71598
415.8361	585.53621
416.2139	625.91045
416.5916	648.14554
416.9694	676.8171
417.347	734.74536
417.7247	763.41692
418.1022	813.73844
418.4798	826.61139
418.8573	866.40049
419.2347	955.92598
419.6122	1036.08933
419.9895	1069.44197
420.3669	1095.77299
420.7441	1180.03228
421.1214	1281.26045
421.4986	1276.57938
421.8757	1369.03054
422.2529	1484.88706
422.6299	1548.66665
423.007	1641.11782
423.3839	1715.42982
423.7609	1789.1567
424.1378	1887.4592
424.5146	2042.51969
424.8915	2098.69255
425.2682	2244.3909
425.645	2382.4825
426.0216	2546.32
426.3983	2658.08058
426.7749	2823.08835
427.1514	3045.43924
427.5279	3173.58357
427.9044	3349.12375
428.2808	3567.96384
428.6572	3802.60255
429.0336	3999.20755
429.4099	4163.63018
429.7861	4440.39853
430.1623	4731.79523
430.5385	5204.58344
430.9146	5351.45206
431.2907	5694.92567
431.6667	6086.9654
432.0427	6514.69831
432.4187	7143.71728
432.7946	7524.63947
433.1705	7886.83737
433.5463	8538.09143
433.9221	9226.79407
434.2978	9952.94527
434.6735	10388.87005
435.0491	11644.56746
435.4248	12359.60112
435.8003	13326.8275
436.1758	14398.79286
436.5513	15920.14107
436.9268	16968.11594
437.3021	19016.08469
437.6775	20474.23844
438.0528	22773.22965
438.4281	24858.64697
438.8033	27102.63558
439.1785	30429.12197
439.5536	31559.01558
439.9287	33757.94889
440.3037	38164.00737
440.6787	39636.20433
441.0537	42218.98549
441.4286	45556.58942
441.8035	46994.26348
442.1783	48824.56241
442.5531	50273.93915
442.9278	50514.4292
443.3025	51777.73335
443.6772	50711.61933
444.0518	52181.47576
444.4264	51671.82411
444.8009	50157.4975
445.1754	50592.83715
445.5498	47124.74835
445.9242	46752.60317
446.2985	46403.27822
446.6728	42780.12893
447.0471	40959.77728
447.4213	39759.66759
447.7955	38914.7342
448.1696	37578.28831
448.5437	34770.23058
448.9178	33664.91259
449.2918	32070.42264
449.6657	30369.43831
450.0397	29196.82991
450.4135	28412.75045
450.7874	27086.25183
451.1612	25413.35393
451.5349	24639.22174
451.9086	23333.20282
452.2823	21686.63594
452.6559	21250.12603
453.0294	19380.62313
453.403	19549.72683
453.7764	18301.63616
454.1499	17474.25679
454.5233	16670.8679
454.8966	15939.45049
455.2699	15224.41683
455.6432	14886.79456
456.0164	14137.23799
456.3896	13660.93898
456.7627	12951.75665
457.1358	12088.68411
457.5089	11897.34532
457.8819	11286.46549
458.2548	10304.61076
458.6277	10323.92018
459.0006	9906.13456
459.3734	9305.78715
459.7462	9314.56415
460.119	8789.69902
460.4917	8305.79326
460.8643	8044.82353
461.2369	7925.45621
461.6095	7469.63688
461.982	7284.14942
462.3545	6893.27996
462.7269	6869.8746
463.0993	6590.76572
463.4717	6116.2221
463.844	6060.04924
464.2162	6029.03715
464.5884	5677.37165
464.9606	5497.73554
465.3327	5280.06572
465.7048	5076.43911
466.0769	5046.01215
466.4489	4952.97585
466.8208	4625.30085
467.1927	4574.3942
467.5646	4528.16862
467.9364	4336.82982
468.3082	4332.73389
468.6799	4132.61808
469.0516	3955.90764
469.4232	3920.21447
469.7948	3912.60773
470.1664	3830.68898
470.5379	3728.87567
470.9094	3587.27326
471.2808	3416.41415
471.6522	3381.30612
472.0235	3355.56023
472.3948	3258.42799
472.7661	3085.22835
473.1373	3107.46344
473.5084	3126.18773
473.8796	2909.68817
474.2506	2867.55853
474.6217	2814.31134
474.9927	2761.06415
475.3636	2730.05206
475.7345	2565.62942
476.1054	2528.18085
476.4762	2467.32692
476.8469	2406.47299
477.2177	2325.72451
477.5883	2408.2284
477.959	2209.86799
478.3296	2167.73835
478.7001	2146.67353
479.0706	2079.38313
479.4411	2065.33991
479.8115	1909.69429
480.1819	1911.44969
480.5522	1859.37277
480.9225	1821.33907
481.2927	1767.50674
481.6629	1693.19473
482.033	1672.71505
482.4031	1624.73407
482.7732	1589.0409
483.1432	1517.65456
483.5132	1460.31143
483.8831	1397.11697
484.253	1397.11697
484.6229	1362.00893
484.9926	1328.6563
485.3624	1280.67532
485.7321	1305.25094
486.1018	1230.3538
486.4714	1199.92683
486.841	1153.70125
487.2105	1151.36072
487.58	1137.3175
487.9494	1099.2838
488.3188	1063.00549
488.6882	1063.59063
489.0575	989.86375
489.4268	969.9692
489.796	966.4584
490.1652	924.32875
490.5343	936.61657
490.9034	897.99773
491.2724	865.23023
491.6414	871.08157
492.0104	862.88969
492.3793	871.08157
492.7482	843.58027
493.117	813.15331
493.4858	774.53447
493.8545	759.90612
494.2232	752.88451
494.5918	727.13862
494.9604	752.88451
495.329	762.24665
495.6975	723.62782
496.066	665.11442
496.4344	668.04009
496.8028	673.89143
497.1711	663.35902
497.5394	641.12393
497.9076	642.2942
498.2758	637.61313
498.644	629.42125
499.0121	608.94157
499.3802	591.38755
499.7482	588.46188
500.1162	573.2484
500.4841	549.2579
500.852	566.22679
501.2198	603.67536
501.5876	552.76871
501.9554	566.22679
502.3231	521.17148
502.6908	524.09715
503.0584	522.92688
503.426	536.97009
503.7935	494.84045
504.161	506.54313
504.5284	513.56473
504.8958	514.14987
505.2632	507.7134
505.6305	462.65808
505.9978	469.67969
506.365	474.9459
506.7322	507.12826
507.0993	464.41348
507.4664	499.52152
507.8334	498.93639
508.2004	435.15679
508.5674	419.35817
508.9343	444.51893
509.3012	458.56215
509.668	443.34866
510.0347	394.78255
510.4015	395.36768
510.7682	422.28384
511.1348	405.31496
511.5014	425.20951
511.8679	381.9096
512.2345	395.36768
512.6009	411.1663
512.9673	424.03924
513.3337	401.80415
513.7	406.48523
514.0663	373.71773
514.4326	393.02715
514.7987	383.665
515.1649	338.02456
515.531	391.27174
515.8971	353.23804
516.2631	396.53795
516.629	362.60018
516.995	330.41782
517.3608	373.13259
517.7267	348.55697
518.0925	356.74884
518.4582	336.26915
518.8239	369.03665
519.1896	377.22853
519.5552	353.23804
519.9207	329.83268
520.2863	344.46103
520.6517	383.07987
521.0172	325.73674
521.3826	331.00295
521.7479	320.47054
522.1132	343.8759
522.4784	342.70563
522.8436	321.05567
523.2088	326.90701
523.5739	338.02456
523.939	339.77996
524.304	315.20433
524.669	327.49215
525.0339	352.6529
525.3988	328.66241
525.7637	339.19482
526.1285	323.39621
526.4932	327.49215
526.8579	275.41523
527.2226	339.77996
527.5872	336.85429
527.9518	331.00295
528.3163	307.59759
528.6808	301.74625
529.0453	282.43683
529.4096	282.43683
529.774	302.33139
530.1383	304.08679
530.5026	328.66241
530.8668	317.54487
531.2309	295.30978
531.5951	281.8517
531.9592	282.43683
532.3232	261.37201
532.6872	267.22335
533.0511	295.89491
533.415	298.82058
533.7789	317.54487
534.1427	289.45844
534.5064	314.03407
534.8702	264.88282
535.2338	271.90442
535.5975	301.16112
535.961	305.84219
536.3246	258.44634
536.6881	269.56389
537.0515	293.55438
537.4149	284.19223
537.7783	291.79898
538.1416	274.24496
538.5049	305.25706
538.8681	295.30978
539.2312	301.74625
539.5944	285.3625
539.9575	294.72465
540.3205	302.91652
540.6835	268.97875
541.0464	282.43683
541.4093	309.93813
541.7722	287.70304
542.135	320.47054
542.4978	301.74625
542.8605	278.3409
543.2232	273.65982
543.5858	277.17063
543.9484	299.99085
544.3109	281.8517
544.6734	269.56389
545.0359	290.62871
545.3983	290.04357
545.7606	281.26657
546.123	298.82058
546.4852	303.50165
546.8474	258.44634
547.2096	292.96924
547.5718	291.79898
547.9338	297.65032
548.2959	283.02197
548.6579	261.95715
549.0198	280.0963
549.3817	280.0963
549.7436	284.19223
550.1054	300.57598
550.4672	308.18273
550.8289	298.82058
551.1906	316.95973
551.5522	258.44634
551.9138	280.68143
552.2753	294.72465
552.6368	255.52067
552.9983	299.99085
553.3597	288.28817
553.721	274.24496
554.0823	285.3625
554.4436	276.58549
554.8048	273.65982
555.166	261.95715
555.5271	309.93813
555.8882	268.39362
556.2493	284.19223
556.6102	258.44634
556.9712	300.57598
557.3321	287.1179
557.6929	287.1179
558.0538	308.18273
558.4145	281.26657
558.7752	297.65032
559.1359	319.30027
559.4965	308.76786
559.8571	301.16112
560.2177	280.0963
560.5781	275.41523
560.9386	296.48005
561.299	321.64081
561.6593	282.43683
562.0196	307.59759
562.3799	248.49907
562.7401	252.595
563.1003	271.31929
563.4604	292.38411
563.8205	259.03148
564.1805	282.43683
564.5405	297.65032
564.9005	256.69094
565.2603	271.90442
565.6202	254.93554
565.98	278.92603
566.3398	322.81107
566.6995	262.54228
567.0591	274.24496
567.4188	307.59759
567.7783	259.61661
568.1379	285.94764
568.4973	256.69094
568.8568	274.83009
569.2162	283.02197
569.5755	299.40572
569.9348	276.58549
570.2941	268.97875
570.6533	280.68143
571.0124	241.47746
571.3715	267.22335
571.7306	279.51116
572.0896	287.70304
572.4486	225.09371
572.8075	264.29768
573.1664	283.02197
573.5253	318.13
573.884	253.76527
574.2428	299.99085
574.6015	283.6071
574.9601	285.94764
575.3188	273.65982
575.6773	306.42732
576.0358	259.03148
576.3943	280.68143
576.7527	264.29768
577.1111	274.24496
577.4694	299.99085
577.8277	229.77478
578.186	275.41523
578.5442	273.65982
578.9023	291.79898
579.2604	316.95973
579.6185	262.54228
579.9765	269.56389
580.3344	230.35991
580.6924	274.24496
581.0502	287.1179
581.408	257.27607
581.7658	266.05308
582.1236	247.3288
582.4812	232.70045
582.8389	266.05308
583.1965	263.71255
583.554	281.8517
583.9115	310.52326
584.269	262.54228
584.6264	275.41523
584.9838	294.13951
585.3411	272.48956
585.6983	257.27607
586.0556	245.5734
586.4127	257.86121
586.7699	246.74366
587.127	281.26657
587.484	264.88282
587.841	414.09197
588.1979	257.86121
588.5548	269.56389
588.9117	287.70304
589.2685	254.93554
589.6253	267.22335
589.982	292.96924
590.3386	271.90442
590.6953	276.00036
591.0518	279.51116
591.4084	289.45844
591.7648	270.73415
592.1213	288.28817
592.4777	298.82058
592.834	294.72465
593.1903	281.26657
593.5466	257.27607
593.9028	271.90442
594.2589	242.64773
594.615	243.81799
594.9711	267.22335
595.3271	281.8517
595.6831	263.71255
596.039	260.78688
596.3949	266.05308
596.7507	278.3409
597.1065	260.78688
597.4623	302.91652
597.8179	266.63822
598.1736	277.75576
598.5292	244.98826
598.8847	264.88282
599.2403	282.43683
599.5957	301.16112
599.9511	284.19223
600.3065	287.1179
600.6618	308.18273
601.0171	267.22335
601.3723	273.65982
601.7275	285.3625
602.0826	280.0963
602.4377	271.31929
602.7928	238.55179
603.1478	269.56389
603.5027	264.88282
603.8576	239.72206
604.2125	267.22335
604.5673	281.26657
604.922	288.87331
605.2767	278.3409
605.6314	262.54228
605.986	254.93554
606.3406	270.14902
606.6951	255.52067
607.0496	263.12741
607.4041	220.99777
607.7584	270.14902
608.1128	228.01938
608.4671	245.5734
608.8213	270.14902
609.1755	244.98826
609.5297	278.92603
609.8838	284.19223
610.2378	271.90442
610.5919	296.48005
610.9458	286.53277
611.2997	267.22335
611.6536	290.04357
612.0074	281.26657
612.3612	274.24496
612.715	237.96665
613.0686	232.11532
613.4223	296.48005
613.7759	226.26398
614.1294	234.45585
614.4829	256.10581
614.8364	275.41523
615.1898	261.37201
615.5431	281.8517
615.8964	263.71255
616.2497	249.0842
616.6029	294.72465
616.9561	238.55179
617.3092	279.51116
617.6623	288.28817
618.0153	277.17063
618.3683	260.78688
618.7212	270.73415
619.0741	290.62871
619.427	271.31929
619.7798	289.45844
620.1325	272.48956
620.4852	276.58549
620.8379	294.13951
621.1905	275.41523
621.543	267.80848
621.8956	249.66933
622.248	250.25447
622.6004	288.87331
622.9528	257.86121
623.3051	274.83009
623.6574	274.83009
624.0096	277.75576
624.3618	266.63822
624.714	277.17063
625.0661	270.73415
625.4181	284.77737
625.7701	252.595
626.122	284.19223
626.4739	243.81799
626.8258	278.3409
627.1776	250.25447
627.5294	256.10581
627.8811	237.38152
628.2327	248.49907
628.5844	261.95715
628.9359	281.8517
629.2874	259.61661
629.6389	248.49907
629.9904	248.49907
630.3417	285.94764
630.6931	271.90442
631.0444	291.21384
631.3956	281.26657
631.7468	282.43683
632.0979	268.97875
632.449	305.25706
632.8001	244.98826
633.1511	254.3504
633.5021	261.37201
633.853	280.0963
634.2038	271.90442
634.5546	256.10581
634.9054	240.89232
635.2561	277.75576
635.6068	236.79639
635.9574	256.69094
636.308	250.25447
636.6585	278.3409
637.009	256.10581
637.3595	292.96924
637.7098	267.22335
638.0602	269.56389
638.4105	236.79639
638.7607	240.30719
639.1109	296.48005
639.4611	281.26657
639.8112	259.03148
640.1612	276.00036
640.5113	249.0842
640.8612	302.91652
641.2111	272.48956
641.561	283.6071
641.9108	278.92603
642.2606	259.03148
642.6103	285.94764
642.96	264.88282
643.3096	257.27607
643.6592	247.3288
644.0088	278.92603
644.3582	299.99085
644.7077	247.3288
645.0571	276.00036
645.4064	292.96924
645.7557	298.82058
646.105	272.48956
646.4542	280.0963
646.8033	293.55438
647.1524	257.86121
647.5015	286.53277
647.8505	253.76527
648.1995	246.15853
648.5484	247.91393
648.8973	275.41523
649.2461	250.25447
649.5949	263.12741
649.9436	268.97875
650.2923	307.01246
650.6409	269.56389
650.9895	256.69094
651.338	271.90442
651.6865	287.1179
652.0349	269.56389
652.3833	260.78688
652.7317	279.51116
653.08	262.54228
653.4282	251.42473
653.7764	232.11532
654.1246	294.13951
654.4727	282.43683
654.8208	277.75576
655.1688	266.05308
655.5167	235.04098
655.8647	256.69094
656.2125	246.15853
656.5603	278.3409
656.9081	256.10581
657.2558	265.46795
657.6035	240.30719
657.9512	249.66933
658.2987	291.21384
658.6463	287.1179
658.9938	247.91393
659.3412	285.94764
659.6886	258.44634
660.0359	242.64773
660.3832	274.24496
660.7305	277.17063
661.0777	277.75576
661.4248	267.22335
661.7719	259.03148
662.119	249.0842
662.466	288.28817
662.813	265.46795
663.1599	290.62871
663.5067	284.77737
663.8535	284.77737
664.2003	271.90442
664.547	274.83009
664.8937	248.49907
665.2403	282.43683
665.5869	273.65982
665.9334	247.91393
666.2799	258.44634
666.6264	287.1179
666.9727	284.19223
667.3191	288.28817
667.6654	273.65982
668.0116	259.61661
668.3578	250.25447
668.7039	236.79639
669.05	290.04357
669.3961	281.26657
669.7421	254.93554
670.088	266.63822
670.4339	321.64081
670.7798	252.595
671.1256	287.1179
671.4714	260.20174
671.8171	280.68143
672.1628	278.3409
672.5084	294.72465
672.8539	271.90442
673.1995	286.53277
673.5449	270.14902
673.8904	263.71255
674.2357	270.14902
674.5811	247.3288
674.9263	252.00987
675.2716	285.3625
675.6167	277.75576
675.9619	271.90442
676.307	241.47746
676.652	261.95715
676.997	270.14902
677.3419	251.42473
677.6868	293.55438
678.0317	277.17063
678.3765	273.65982
678.7212	289.45844
679.0659	271.31929
679.4106	232.70045
679.7552	267.22335
680.0997	250.8396
680.4443	270.14902
680.7887	278.3409
681.1331	242.64773
681.4775	302.91652
681.8218	278.92603
682.1661	250.25447
682.5103	251.42473
682.8545	242.64773
683.1986	290.62871
683.5426	257.86121
683.8867	219.8275
684.2306	230.94505
684.5746	253.18014
684.9185	254.3504
685.2623	244.40313
685.6061	276.58549
685.9498	265.46795
686.2935	287.1179
686.6371	323.39621
686.9807	246.74366
687.3243	270.14902
687.6678	266.63822
688.0112	249.0842
688.3546	234.45585
688.6979	261.95715
689.0412	260.78688
689.3845	278.3409
689.7277	273.07469
690.0708	280.0963
690.4139	272.48956
690.757	302.33139
691.1	267.80848
691.443	252.00987
691.7859	257.27607
692.1287	257.86121
692.4716	260.20174
692.8143	247.91393
693.157	248.49907
693.4997	262.54228
693.8423	236.21125
694.1849	238.55179
694.5274	259.03148
694.8699	274.83009
695.2123	253.76527
695.5547	299.99085
695.897	271.31929
696.2393	273.07469
696.5815	264.88282
696.9237	254.3504
697.2658	243.23286
697.6079	264.29768
697.95	262.54228
698.292	231.53018
698.6339	242.64773
698.9758	257.27607
699.3176	263.12741
699.6594	274.24496
700.0012	276.00036
700.3429	264.29768
700.6845	257.86121
701.0261	279.51116
701.3677	252.00987
701.7092	295.89491
702.0506	244.40313
702.392	251.42473
702.7334	271.31929
703.0747	250.8396
703.4159	235.62612
703.7571	253.76527
704.0983	295.30978
704.4394	256.69094
704.7805	274.24496
705.1215	270.73415
705.4624	273.07469
705.8034	231.53018
706.1442	254.3504
706.485	254.3504
706.8258	250.8396
707.1665	289.45844
707.5072	261.95715
707.8478	244.98826
708.1884	286.53277
708.5289	259.03148
708.8694	273.07469
709.2098	271.90442
709.5502	247.91393
709.8905	233.28558
710.2308	260.78688
710.571	275.41523
710.9112	273.07469
711.2513	268.39362
711.5914	272.48956
711.9315	276.58549
712.2714	257.27607
712.6114	291.21384
712.9513	261.95715
713.2911	245.5734
713.6309	251.42473
713.9706	261.95715
714.3103	267.80848
714.65	290.04357
714.9896	239.13692
715.3291	277.75576
715.6686	235.62612
716.0081	248.49907
716.3475	257.27607
716.6868	236.79639
717.0261	264.29768
717.3654	275.41523
717.7046	270.14902
718.0437	240.89232
718.3828	246.15853
718.7219	269.56389
719.0609	277.75576
719.3998	283.02197
719.7387	241.47746
720.0776	268.39362
720.4164	251.42473
720.7552	228.60451
721.0939	244.40313
721.4325	282.43683
721.7711	291.79898
722.1097	297.06518
722.4482	273.07469
722.7867	267.80848
723.1251	315.20433
723.4635	266.63822
723.8018	267.22335
724.14	290.04357
724.4783	243.23286
724.8164	270.73415
725.1546	288.87331
725.4926	282.43683
725.8306	270.14902
726.1686	261.37201
726.5065	291.21384
726.8444	268.39362
727.1822	283.02197
727.52	270.73415
727.8577	285.94764
728.1954	279.51116
728.533	273.65982
728.8706	277.17063
729.2081	266.63822
729.5456	262.54228
729.883	281.26657
730.2204	264.29768
730.5578	284.19223
730.895	270.14902
731.2323	255.52067
731.5695	249.0842
731.9066	284.19223
732.2437	277.17063
732.5807	260.78688
732.9177	252.00987
733.2546	287.1179
733.5915	280.68143
733.9283	299.40572
734.2651	274.83009
734.6019	256.10581
734.9386	270.73415
735.2752	263.71255
735.6118	290.62871
735.9483	288.28817
736.2848	273.65982
736.6213	281.8517
736.9576	268.39362
737.294	260.78688
737.6303	278.3409
737.9665	290.04357
738.3027	259.03148
738.6389	262.54228
738.975	249.0842
739.311	223.92344
739.647	253.18014
739.9829	242.06259
740.3188	240.30719
740.6547	231.53018
740.9905	266.05308
741.3262	274.83009
741.6619	255.52067
741.9976	291.79898
742.3332	268.39362
742.6687	271.90442
743.0042	272.48956
743.3397	242.06259
743.6751	265.46795
744.0104	236.79639
744.3457	273.65982
744.681	253.76527
745.0162	280.0963
745.3513	261.95715
745.6864	244.98826
746.0215	261.37201
746.3565	279.51116
746.6914	267.22335
747.0263	220.41264
747.3612	274.24496
747.696	284.19223
748.0307	260.78688
748.3654	260.20174
748.7001	256.10581
749.0347	254.93554
749.3692	257.86121
749.7037	268.39362
750.0382	253.18014
750.3726	258.44634
750.707	262.54228
751.0413	257.27607
751.3755	282.43683
751.7097	284.19223
752.0439	240.30719
752.378	280.0963
752.712	264.29768
753.046	284.19223
753.38	268.39362
753.7139	260.78688
754.0478	273.07469
754.3816	235.04098
754.7153	269.56389
755.049	271.90442
755.3827	274.24496
755.7163	264.88282
756.0498	276.00036
756.3833	274.83009
756.7168	252.00987
757.0502	248.49907
757.3836	250.8396
757.7169	253.18014
758.0501	267.22335
758.3833	260.78688
758.7165	250.8396
759.0496	269.56389
759.3827	276.58549
759.7157	284.77737
760.0486	272.48956
760.3815	253.18014
760.7144	263.12741
761.0472	272.48956
761.3799	264.29768
761.7126	240.89232
762.0453	248.49907
762.3779	277.17063
762.7105	261.37201
763.043	270.14902
763.3754	260.78688
763.7078	275.41523
764.0402	290.62871
764.3725	291.79898
764.7047	250.25447
765.037	257.27607
765.3691	252.595
765.7012	257.27607
766.0333	224.50857
766.3653	238.55179
766.6972	238.55179
767.0291	269.56389
767.361	271.90442
767.6928	263.12741
768.0245	250.25447
768.3562	273.07469
768.6879	287.1179
769.0195	250.8396
769.3511	290.62871
769.6826	245.5734
770.014	232.70045
770.3454	299.99085
770.6768	256.69094
771.0081	303.50165
771.3393	261.95715
771.6705	292.96924
772.0017	285.3625
772.3328	265.46795
772.6638	285.3625
772.9948	227.43424
773.3258	254.3504
773.6567	269.56389
773.9875	280.0963
774.3183	298.82058
774.6491	256.69094
774.9797	265.46795
775.3104	242.64773
775.641	237.38152
775.9715	240.30719
776.302	275.41523
776.6325	251.42473
776.9629	270.14902
777.2932	264.88282
777.6235	260.78688
777.9538	278.92603
778.2839	248.49907
778.6141	253.76527
778.9442	278.92603
779.2742	248.49907
779.6042	271.31929
779.9342	267.22335
780.264	276.00036
780.5939	252.00987
780.9237	281.26657
781.2534	280.68143
781.5831	257.27607
781.9127	263.12741
782.2423	244.40313
782.5719	251.42473
782.9014	263.71255
783.2308	256.10581
783.5602	292.38411
783.8895	247.3288
784.2188	244.98826
784.548	301.16112
784.8772	263.12741
785.2063	304.08679
785.5354	268.97875
785.8645	245.5734
786.1934	233.28558
786.5224	256.69094
786.8512	261.95715
787.1801	277.75576
787.5088	263.71255
787.8376	249.0842
788.1663	249.66933
788.4949	275.41523
788.8235	273.65982
789.152	273.07469
789.4805	277.75576
789.8089	263.12741
790.1372	257.27607
790.4656	265.46795
790.7938	251.42473
791.1221	253.76527
791.4502	273.07469
791.7783	256.10581
792.1064	260.78688
792.4344	270.73415
792.7624	240.89232
793.0903	250.8396
793.4182	237.96665
793.746	265.46795
794.0738	234.45585
794.4015	311.69353
794.7291	271.90442
795.0567	281.26657
795.3843	254.93554
795.7118	256.10581
796.0393	257.27607
796.3667	288.28817
796.694	247.91393
797.0213	287.70304
797.3486	270.14902
797.6758	273.65982
798.0029	279.51116
798.3301	284.19223
798.6571	245.5734
798.9841	259.61661
799.3111	287.1179
799.638	278.92603
799.9648	287.1179
800.2916	260.78688
800.6183	291.79898
800.945	222.75317
801.2717	247.3288
801.5983	262.54228
801.9248	256.10581
802.2513	254.93554
802.5777	252.595
802.9041	262.54228
803.2305	273.07469
803.5568	264.29768
803.883	256.69094
804.2092	245.5734
804.5353	259.61661
804.8614	266.05308
805.1874	244.98826
805.5134	253.18014
805.8393	283.02197
806.1652	257.27607
806.491	246.15853
806.8168	284.77737
807.1425	239.13692
807.4682	251.42473
807.7938	276.58549
808.1194	260.78688
808.4449	256.10581
808.7704	275.41523
809.0958	277.17063
809.4212	245.5734
809.7465	254.3504
810.0718	233.87072
810.397	274.83009
810.7221	261.95715
811.0473	262.54228
811.3723	247.3288
811.6973	270.14902
812.0223	254.93554
812.3472	266.63822
812.672	261.37201
812.9968	285.94764
813.3216	245.5734
813.6463	276.58549
813.9709	252.00987
814.2955	240.89232
814.6201	243.23286
814.9446	244.40313
815.269	264.88282
815.5934	266.05308
815.9178	225.09371
816.2421	265.46795
816.5663	254.3504
816.8905	270.14902
817.2146	283.02197
817.5387	260.20174
817.8627	255.52067
818.1867	254.93554
818.5107	303.50165
818.8345	276.00036
819.1584	266.05308
819.4822	272.48956
819.8059	266.05308
820.1296	283.6071
820.4532	260.20174
820.7767	255.52067
821.1003	262.54228
821.4237	271.90442
821.7472	266.05308
822.0705	252.595
822.3938	238.55179
822.7171	263.12741
823.0403	252.595
823.3635	239.13692
823.6866	263.12741
824.0096	249.0842
824.3326	258.44634
824.6556	259.03148
824.9785	257.86121
825.3014	288.87331
825.6242	254.3504
825.9469	266.05308
826.2696	287.70304
826.5922	278.3409
826.9148	270.73415
827.2374	249.0842
827.5599	268.39362
827.8823	252.00987
828.2047	261.37201
828.527	260.20174
828.8493	243.81799
829.1716	261.95715
829.4937	260.78688
829.8159	281.26657
830.1379	234.45585
830.46	233.87072
830.7819	264.29768
831.1039	259.03148
831.4257	249.66933
831.7476	233.87072
832.0693	256.10581
832.391	284.77737
832.7127	243.23286
833.0343	273.65982
833.3559	240.30719
833.6774	278.92603
833.9988	256.10581
834.3202	270.73415
834.6416	261.37201
834.9629	256.10581
835.2842	253.18014
835.6054	255.52067
835.9265	284.77737
836.2476	266.63822
836.5686	260.78688
836.8896	283.02197
837.2106	252.00987
837.5315	257.86121
837.8523	261.95715
838.1731	274.24496
838.4938	235.04098
838.8145	267.22335
839.1351	274.83009
839.4557	277.17063
839.7762	260.78688
840.0967	273.07469
840.4171	252.00987
840.7375	270.73415
841.0578	240.30719
841.3781	289.45844
841.6983	271.31929
842.0185	294.13951
842.3386	275.41523
842.6586	270.73415
842.9786	268.39362
843.2986	242.06259
843.6185	244.98826
843.9383	260.20174
844.2581	261.37201
844.5779	260.20174
844.8976	259.61661
845.2172	293.55438
845.5368	267.22335
845.8563	275.41523
846.1758	249.0842
846.4953	285.3625
846.8147	283.6071
847.134	299.40572
847.4533	257.27607
847.7725	276.00036
848.0917	258.44634
848.4108	292.38411
848.7299	265.46795
849.0489	257.27607
849.3678	289.45844
849.6868	237.96665
850.0056	252.595
850.3244	290.04357
850.6432	305.25706
850.9619	263.12741
851.2805	256.69094
851.5991	278.3409
851.9177	235.62612
852.2362	270.14902
852.5546	250.25447
852.873	263.12741
853.1914	263.12741
853.5097	252.595
853.8279	256.69094
854.1461	268.39362
854.4642	254.3504
854.7823	288.87331
855.1003	263.71255
855.4183	260.78688
855.7362	264.29768
856.0541	259.03148
856.3719	240.89232
856.6897	258.44634
857.0074	270.73415
857.325	254.3504
857.6427	254.93554
857.9602	265.46795
858.2777	260.78688
858.5952	256.69094
858.9126	236.21125
859.2299	233.28558
859.5472	246.74366
859.8645	284.19223
860.1816	235.62612
860.4988	246.74366
860.8159	271.90442
861.1329	242.06259
861.4499	264.29768
861.7668	230.94505
862.0837	240.89232
862.4005	261.95715
862.7173	287.1179
863.034	256.10581
863.3507	257.86121
863.6673	273.07469
863.9839	227.43424
864.3004	256.10581
864.6168	267.80848
864.9332	265.46795
865.2496	266.05308
865.5659	263.12741
865.8821	279.51116
866.1983	249.66933
866.5145	271.90442
866.8306	283.02197
867.1466	239.72206
867.4626	287.1179
867.7785	294.13951
868.0944	290.04357
868.4102	269.56389
868.726	276.58549
869.0417	282.43683
869.3574	273.65982
869.673	225.67884
869.9886	226.84911
870.3041	262.54228
870.6195	300.57598
870.935	236.79639
871.2503	257.86121
871.5656	250.8396
871.8809	259.61661
872.1961	278.3409
872.5112	260.20174
872.8263	252.00987
873.1413	253.76527
873.4563	243.81799
873.7713	256.10581
874.0861	281.8517
874.401	255.52067
874.7157	266.63822
875.0305	277.17063
875.3451	254.93554
875.6597	247.91393
875.9743	243.81799
876.2888	295.89491
876.6033	268.39362
876.9177	250.8396
877.232	256.10581
877.5463	281.26657
877.8606	267.80848
878.1748	287.1179
878.4889	249.0842
878.803	256.10581
879.1171	274.24496
879.431	273.07469
879.745	244.98826
880.0589	290.62871
880.3727	219.8275
880.6865	260.20174
881.0002	270.73415
881.3138	251.42473
881.6275	250.8396
881.941	253.76527
882.2545	266.63822
882.568	254.93554
882.8814	270.73415
883.1947	249.0842
883.508	275.41523
883.8213	236.79639
884.1345	264.88282
884.4476	283.02197
884.7607	285.3625
885.0737	263.12741
885.3867	272.48956
885.6996	233.87072
886.0125	263.12741
886.3253	277.75576
886.6381	237.38152
886.9508	247.3288
887.2635	262.54228
887.5761	256.10581
887.8886	264.29768
888.2012	258.44634
888.5136	243.23286
888.826	269.56389
889.1383	254.93554
889.4506	257.27607
889.7629	270.73415
890.0751	274.83009
890.3872	259.03148
890.6993	252.595
891.0113	268.39362
891.3233	263.12741
891.6352	236.21125
891.9471	263.71255
892.2589	259.61661
892.5706	241.47746
892.8823	267.80848
893.194	290.62871
893.5056	252.595
893.8171	291.79898
894.1286	263.12741
894.4401	253.18014
894.7515	260.78688
895.0628	284.77737
895.3741	260.20174
895.6853	263.12741
895.9965	249.0842
896.3076	276.58549
896.6187	278.92603
896.9297	270.14902
897.2407	276.58549
897.5516	252.00987
897.8624	273.65982
898.1732	253.76527
898.484	298.23545
898.7947	280.0963
899.1053	246.15853
899.4159	270.73415
899.7264	273.65982
900.0369	241.47746
900.3474	240.30719
900.6577	265.46795
900.9681	223.92344
901.2783	248.49907
901.5886	273.07469
901.8987	263.71255
902.2088	272.48956
902.5189	273.65982
902.8289	233.87072
903.1388	240.30719
903.4487	245.5734
903.7586	266.05308
904.0684	257.86121
904.3781	279.51116
904.6878	226.84911
904.9974	259.03148
905.307	283.02197
905.6165	249.0842
905.926	276.00036
906.2354	265.46795
906.5448	244.98826
906.8541	259.03148
907.1633	276.58549
907.4725	250.8396
907.7817	269.56389
908.0908	229.77478
908.3998	270.14902
908.7088	291.79898
909.0178	223.92344
909.3266	254.3504
909.6355	260.20174
909.9442	256.10581
910.253	293.55438
910.5616	265.46795
910.8702	303.50165
911.1788	288.28817
911.4873	264.29768
911.7958	252.595
912.1042	263.71255
912.4125	269.56389
912.7208	273.07469
913.029	267.80848
913.3372	274.24496
913.6454	253.18014
913.9534	260.78688
914.2615	270.73415
914.5694	256.10581
914.8774	281.26657
915.1852	260.20174
915.493	252.00987
915.8008	235.62612
916.1085	270.14902
916.4161	258.44634
916.7237	247.91393
917.0313	254.3504
917.3388	292.96924
917.6462	268.39362
917.9536	271.90442
918.2609	277.17063
918.5682	295.30978
918.8754	289.45844
919.1826	282.43683
919.4897	267.80848
919.7967	261.37201
920.1037	235.04098
920.4107	230.94505
920.7176	256.69094
921.0244	222.75317
921.3312	266.05308
921.6379	244.40313
921.9446	274.83009
922.2513	263.71255
922.5578	259.61661
922.8644	282.43683
923.1708	292.96924
923.4772	251.42473
923.7836	272.48956
924.0899	246.15853
924.3961	232.11532
924.7023	245.5734
925.0085	277.75576
925.3146	271.31929
925.6206	237.96665
925.9266	280.0963
926.2325	280.0963
926.5384	258.44634
926.8442	285.3625
927.15	228.60451
927.4557	241.47746
927.7613	222.16804
928.067	281.26657
928.3725	247.91393
928.678	260.20174
928.9834	226.26398
929.2888	226.84911
929.5942	269.56389
929.8994	248.49907
930.2047	285.3625
930.5098	258.44634
930.815	267.22335
931.12	264.88282
931.425	260.20174
931.73	293.55438
932.0349	263.12741
932.3397	303.50165
932.6445	285.3625
932.9493	254.3504
933.254	254.93554
933.5586	309.35299
933.8632	246.15853
934.1677	255.52067
934.4722	255.52067
934.7766	245.5734
935.0809	267.22335
935.3852	254.93554
935.6895	284.19223
935.9937	282.43683
936.2978	247.3288
936.6019	252.595
936.906	260.78688
937.2099	268.97875
937.5139	254.3504
937.8177	218.0721
938.1216	289.45844
938.4253	282.43683
938.729	257.27607
939.0327	264.29768
939.3363	257.27607
939.6398	273.65982
939.9433	242.64773
940.2468	288.87331
940.5501	267.22335
940.8535	268.39362
941.1568	238.55179
941.46	266.63822
941.7631	273.65982
942.0663	246.15853
942.3693	247.3288
942.6723	260.20174
942.9753	276.58549
943.2782	271.90442
943.581	271.90442
943.8838	263.12741
944.1865	261.95715
944.4892	257.27607
944.7918	271.31929
945.0944	252.595
945.3969	269.56389
945.6994	264.88282
946.0018	291.21384
946.3041	257.86121
946.6064	249.0842
946.9087	243.23286
947.2109	263.12741
947.513	273.65982
947.8151	242.64773
948.1171	277.75576
948.4191	257.27607
948.721	252.00987
949.0229	271.90442
949.3247	271.90442
949.6264	285.94764
949.9281	275.41523
950.2298	267.80848
950.5314	259.61661
950.8329	253.18014
951.1344	264.29768
951.4358	271.31929
951.7372	267.22335
952.0385	263.12741
952.3397	276.00036
952.641	244.40313
952.9421	262.54228
953.2432	285.3625
953.5442	247.91393
953.8452	252.00987
954.1462	243.81799
954.4471	256.69094
954.7479	270.73415
955.0486	224.50857
955.3494	244.98826
955.65	245.5734
955.9506	294.13951
956.2512	276.58549
956.5517	271.90442
956.8521	290.62871
957.1525	281.26657
957.4528	283.6071
957.7531	294.13951
958.0534	280.68143
958.3535	266.05308
958.6536	252.595
958.9537	266.63822
959.2537	252.00987
959.5537	247.3288
959.8535	263.71255
960.1534	242.64773
960.4532	266.63822
960.7529	259.61661
961.0526	242.64773
961.3522	237.38152
961.6518	270.14902
961.9513	301.16112
962.2507	270.14902
962.5501	250.8396
962.8495	260.78688
963.1488	277.17063
963.448	289.45844
963.7472	246.15853
964.0463	251.42473
964.3454	271.90442
964.6444	260.78688
964.9434	274.83009
965.2423	271.90442
965.5412	267.22335
965.84	250.25447
966.1387	256.10581
966.4374	261.37201
966.736	254.93554
967.0346	280.68143
967.3331	260.20174
967.6316	295.30978
967.93	280.0963
968.2284	279.51116
968.5267	254.3504
968.8249	282.43683
969.1231	262.54228
969.4213	250.25447
969.7194	241.47746
970.0174	246.74366
970.3154	248.49907
970.6133	243.81799
970.9111	257.27607
971.2089	235.62612
971.5067	268.39362
971.8044	289.45844
972.102	247.91393
972.3996	235.62612
972.6972	240.89232
972.9947	252.595
973.2921	238.55179
973.5894	261.37201
973.8868	284.77737
974.184	266.05308
974.4812	291.79898
974.7784	254.93554
975.0755	272.48956
975.3725	270.14902
975.6695	256.69094
975.9664	244.40313
976.2633	247.3288
976.5601	268.97875
976.8569	285.3625
977.1536	260.20174
977.4502	266.05308
977.7468	228.01938
978.0434	276.00036
978.3399	278.3409
978.6363	260.20174
978.9327	263.12741
979.229	259.03148
979.5253	250.8396
979.8215	251.42473
980.1176	277.75576
980.4137	293.55438
980.7098	259.03148
981.0058	240.89232
981.3017	265.46795
981.5976	246.15853
981.8934	253.18014
982.1892	267.22335
982.4849	223.33831
982.7805	261.95715
983.0761	273.07469
983.3717	237.96665
983.6672	295.30978
983.9626	290.04357
984.258	249.66933
984.5533	235.62612
984.8486	282.43683
985.1438	242.64773
985.439	260.78688
985.7341	264.29768
986.0291	242.64773
986.3241	253.18014
986.619	270.14902
986.9139	252.00987
987.2087	271.31929
987.5035	249.66933
987.7982	275.41523
988.0929	274.24496
988.3875	275.41523
988.6821	253.76527
988.9765	247.3288
989.271	260.20174
989.5654	255.52067
989.8597	253.76527
990.154	251.42473
990.4482	281.26657
990.7423	262.54228
991.0365	294.13951
991.3305	256.69094
991.6245	281.8517
991.9184	275.41523
992.2123	261.37201
992.5061	256.10581
992.7999	273.07469
993.0936	263.71255
993.3873	222.16804
993.6809	252.00987
993.9745	255.52067
994.2679	281.8517
994.5614	237.38152
994.8548	279.51116
995.1481	263.12741
995.4414	277.75576
995.7346	233.28558
996.0277	264.88282
996.3208	251.42473
996.6139	255.52067
996.9069	236.79639
997.1998	254.93554
997.4927	278.92603
997.7855	242.64773
998.0783	239.13692
998.371	253.76527
998.6637	228.01938
998.9563	266.05308
999.2488	229.77478
999.5413	278.3409
999.8338	264.29768
1000.1261	226.84911
1000.4185	254.3504
1000.7107	276.58549
1001.0029	296.48005
1001.2951	271.90442
1001.5872	274.83009
1001.8792	228.01938
1002.1712	226.84911
1002.4632	248.49907
1002.755	257.86121
1003.0469	264.88282
1003.3386	266.63822
1003.6303	245.5734
1003.922	250.8396
1004.2136	255.52067
1004.5051	273.07469
1004.7966	263.12741
1005.0881	283.02197
1005.3794	243.81799
1005.6708	241.47746
1005.962	260.78688
1006.2532	260.20174
1006.5444	271.31929
1006.8355	259.61661
1007.1265	257.27607
1007.4175	272.48956
1007.7084	253.76527
1007.9993	226.26398
1008.2901	294.13951
1008.5809	260.78688
1008.8716	244.98826
1009.1622	267.80848
1009.4528	261.37201
1009.7434	257.27607
1010.0338	243.81799
1010.3243	238.55179
1010.6146	243.81799
1010.9049	222.75317
1011.1952	253.18014
1011.4854	260.20174
1011.7755	284.19223
1012.0656	252.00987
1012.3557	256.69094
1012.6456	243.23286
1012.9355	275.41523
1013.2254	260.78688
1013.5152	247.91393
1013.805	263.71255
1014.0947	267.22335
1014.3843	254.93554
1014.6739	257.27607
1014.9634	241.47746
1015.2529	253.18014
1015.5423	256.10581
1015.8317	256.69094
1016.121	259.03148
1016.4102	261.37201
1016.6994	279.51116
1016.9885	259.03148
1017.2776	218.0721
1017.5666	255.52067
1017.8556	275.41523
1018.1445	281.26657
1018.4333	264.88282
1018.7221	267.22335
1019.0109	277.75576
1019.2996	275.41523
1019.5882	280.0963
1019.8768	266.63822
1020.1653	232.11532
1020.4537	270.14902
1020.7421	244.98826
1021.0305	245.5734
1021.3188	249.0842
1021.607	251.42473
1021.8952	273.07469
1022.1833	267.80848
1022.4714	240.30719
1022.7594	235.62612
1023.0473	250.8396
1023.3352	290.04357
1023.6231	311.1084
1023.9108	244.40313
1024.1986	272.48956
1024.4862	271.90442
1024.7738	294.72465
1025.0614	257.86121
1025.3489	273.65982
1025.6363	272.48956
1025.9237	249.66933
1026.2111	253.76527
1026.4983	250.8396
1026.7855	253.76527
1027.0727	282.43683
1027.3598	248.49907
1027.6469	284.19223
1027.9339	249.66933
1028.2208	247.91393
1028.5077	266.05308
1028.7945	271.90442
1029.0813	280.0963
1029.368	246.15853
1029.6546	252.00987
1029.9412	261.95715
1030.2278	245.5734
1030.5142	253.76527
1030.8007	246.15853
1031.087	256.69094
1031.3733	280.0963
1031.6596	263.12741
1031.9458	276.58549
1032.232	241.47746
1032.518	240.30719
1032.8041	240.30719
1033.09	240.30719
